#Distance(A) Planar-Average-Potential(eV)/Densitiy(e/A)
  0.0000             5.45039
  0.0893             5.45175
  0.1786             5.45315
  0.2679             5.45451
  0.3571             5.45590
  0.4464             5.45727
  0.5357             5.45866
  0.6250             5.46002
  0.7143             5.46141
  0.8036             5.46278
  0.8929             5.46417
  0.9821             5.46554
  1.0714             5.46692
  1.1607             5.46830
  1.2500             5.46968
  1.3393             5.47105
  1.4286             5.47243
  1.5179             5.47381
  1.6071             5.47518
  1.6964             5.47657
  1.7857             5.47793
  1.8750             5.47932
  1.9643             5.48069
  2.0536             5.48208
  2.1429             5.48344
  2.2321             5.48483
  2.3214             5.48619
  2.4107             5.48759
  2.5000             5.48894
  2.5893             5.49034
  2.6786             5.49169
  2.7679             5.49310
  2.8571             5.49444
  2.9464             5.49586
  3.0357             5.49720
  3.1250             5.49861
  3.2143             5.49995
  3.3036             5.50137
  3.3929             5.50270
  3.4821             5.50412
  3.5714             5.50545
  3.6607             5.50688
  3.7500             5.50820
  3.8393             5.50964
  3.9286             5.51095
  4.0179             5.51239
  4.1071             5.51371
  4.1964             5.51515
  4.2857             5.51645
  4.3750             5.51791
  4.4643             5.51921
  4.5536             5.52066
  4.6429             5.52196
  4.7321             5.52342
  4.8214             5.52471
  4.9107             5.52618
  5.0000             5.52746
  5.0893             5.52894
  5.1786             5.53022
  5.2679             5.53169
  5.3571             5.53297
  5.4464             5.53445
  5.5357             5.53572
  5.6250             5.53721
  5.7143             5.53847
  5.8036             5.53997
  5.8929             5.54123
  5.9821             5.54273
  6.0714             5.54398
  6.1607             5.54549
  6.2500             5.54673
  6.3393             5.54825
  6.4286             5.54948
  6.5179             5.55100
  6.6071             5.55223
  6.6964             5.55376
  6.7857             5.55498
  6.8750             5.55652
  6.9643             5.55774
  7.0536             5.55928
  7.1429             5.56048
  7.2321             5.56204
  7.3214             5.56323
  7.4107             5.56480
  7.5000             5.56598
  7.5893             5.56755
  7.6786             5.56872
  7.7679             5.57030
  7.8571             5.57146
  7.9464             5.57304
  8.0357             5.57419
  8.1250             5.57578
  8.2143             5.57691
  8.3036             5.57850
  8.3929             5.57961
  8.4821             5.58119
  8.5714             5.58227
  8.6607             5.58383
  8.7500             5.58487
  8.8393             5.58640
  8.9286             5.58736
  9.0179             5.58883
  9.1071             5.58968
  9.1964             5.59103
  9.2857             5.59169
  9.3750             5.59283
  9.4643             5.59319
  9.5536             5.59397
  9.6429             5.59380
  9.7321             5.59394
  9.8214             5.59291
  9.9107             5.59195
 10.0000             5.58943
 10.0893             5.58658
 10.1786             5.58152
 10.2679             5.57541
 10.3571             5.56600
 10.4464             5.55423
 10.5357             5.53732
 10.6250             5.51575
 10.7143             5.48576
 10.8036             5.44703
 10.8929             5.39411
 10.9821             5.32505
 11.0714             5.23167
 11.1607             5.11388
 11.2500             4.95105
 11.3393             4.70601
 11.4286             4.38919
 11.5179             3.97465
 11.6071             3.39404
 11.6964             2.61463
 11.7857             1.68027
 11.8750             0.64748
 11.9643            -0.38802
 12.0536            -1.64489
 12.1429            -3.27329
 12.2321            -5.04468
 12.3214            -6.61311
 12.4107            -7.69437
 12.5000            -8.22497
 12.5893            -8.29565
 12.6786            -8.05685
 12.7679            -7.67436
 12.8571            -7.30825
 12.9464            -6.96564
 13.0357            -6.60202
 13.1250            -6.34383
 13.2143            -6.54256
 13.3036            -7.40017
 13.3929            -8.76894
 13.4821           -10.16492
 13.5714           -11.33636
 13.6607           -12.20556
 13.7500           -12.66999
 13.8393           -12.68974
 13.9286           -12.26290
 14.0179           -11.42432
 14.1071           -10.27204
 14.1964            -8.88080
 14.2857            -7.49166
 14.3750            -6.59091
 14.4643            -6.32855
 14.5536            -6.54058
 14.6429            -6.87751
 14.7321            -7.17627
 14.8214            -7.48296
 14.9107            -7.83031
 15.0000            -8.06789
 15.0893            -8.02923
 15.1786            -7.56501
 15.2679            -6.57316
 15.3571            -5.10817
 15.4464            -3.43875
 15.5357            -1.90598
 15.6250            -0.73228
 15.7143             0.22779
 15.8036             1.20948
 15.8929             2.11970
 15.9821             2.90157
 16.0714             3.49509
 16.1607             3.89871
 16.2500             4.17147
 16.3393             4.35658
 16.4286             4.43732
 16.5179             4.42490
 16.6071             4.34298
 16.6964             4.17669
 16.7857             3.91256
 16.8750             3.52645
 16.9643             2.98482
 17.0536             2.25033
 17.1429             1.32209
 17.2321            -0.09454
 17.3214            -2.22139
 17.4107            -4.74831
 17.5000            -7.35771
 17.5893           -10.00344
 17.6786           -12.68155
 17.7679           -15.38457
 17.8571           -18.08127
 17.9464           -20.59643
 18.0357           -22.61178
 18.1250           -23.77816
 18.2143           -23.90944
 18.3036           -23.07330
 18.3929           -21.58343
 18.4821           -19.77884
 18.5714           -17.78412
 18.6607           -15.38321
 18.7500           -12.63035
 18.8393            -9.77084
 18.9286            -7.01296
 19.0179            -4.57214
 19.1071            -2.63470
 19.1964            -1.30316
 19.2857            -0.51305
 19.3750             0.02304
 19.4643             0.15124
 19.5536            -0.49386
 19.6429            -1.74702
 19.7321            -3.22599
 19.8214            -4.53623
 19.9107            -5.50682
 20.0000            -6.17895
 20.0893            -6.66082
 20.1786            -7.04049
 20.2679            -7.48995
 20.3571            -8.02790
 20.4464            -8.62811
 20.5357            -9.30031
 20.6250           -10.25326
 20.7143           -11.70185
 20.8036           -13.69077
 20.8929           -15.81854
 20.9821           -17.72151
 21.0714           -19.33183
 21.1607           -20.55624
 21.2500           -21.34425
 21.3393           -21.66817
 21.4286           -21.52121
 21.5179           -20.90499
 21.6071           -19.84082
 21.6964           -18.36472
 21.7857           -16.56359
 21.8750           -14.50165
 21.9643           -12.39362
 22.0536           -10.72360
 22.1429            -9.60290
 22.2321            -8.85578
 22.3214            -8.24017
 22.4107            -7.67621
 22.5000            -7.19057
 22.5893            -6.79933
 22.6786            -6.37414
 22.7679            -5.78098
 22.8571            -4.93805
 22.9464            -3.74818
 23.0357            -2.29539
 23.1250            -0.90359
 23.2143             0.01272
 23.3036             0.16696
 23.3929            -0.26871
 23.4821            -0.92937
 23.5714            -2.02641
 23.6607            -3.73210
 23.7500            -5.99399
 23.8393            -8.64641
 23.9286           -11.48556
 24.0179           -14.29108
 24.1071           -16.84829
 24.1964           -18.95302
 24.2857           -20.76853
 24.3750           -22.37446
 24.4643           -23.49419
 24.5536           -23.78318
 24.6429           -23.04176
 24.7321           -21.35305
 24.8214           -19.00731
 24.9107           -16.36547
 25.0000           -13.67136
 25.0893           -11.01472
 25.1786            -8.39014
 25.2679            -5.79713
 25.3571            -3.21799
 25.4464            -0.85011
 25.5357             0.90104
 25.6250             2.00430
 25.7143             2.82136
 25.8036             3.46741
 25.8929             3.93967
 25.9821             4.29408
 26.0714             4.55448
 26.1607             4.74997
 26.2500             4.89410
 26.3393             5.00277
 26.4286             5.08312
 26.5179             5.14409
 26.6071             5.18933
 26.6964             5.22395
 26.7857             5.24980
 26.8750             5.26982
 26.9643             5.28488
 27.0536             5.29672
 27.1429             5.30577
 27.2321             5.31304
 27.3214             5.31873
 27.4107             5.32341
 27.5000             5.32722
 27.5893             5.33045
 27.6786             5.33321
 27.7679             5.33561
 27.8571             5.33779
 27.9464             5.33973
 28.0357             5.34158
 28.1250             5.34324
 28.2143             5.34491
 28.3036             5.34643
 28.3929             5.34800
 28.4821             5.34942
 28.5714             5.35094
 28.6607             5.35232
 28.7500             5.35381
 28.8393             5.35514
 28.9286             5.35662
 29.0179             5.35795
 29.1071             5.35941
 29.1964             5.36072
 29.2857             5.36219
 29.3750             5.36349
 29.4643             5.36496
 29.5536             5.36625
 29.6429             5.36772
 29.7321             5.36902
 29.8214             5.37048
 29.9107             5.37177
 30.0000             5.37323
 30.0893             5.37453
 30.1786             5.37599
 30.2679             5.37729
 30.3571             5.37875
 30.4464             5.38005
 30.5357             5.38151
 30.6250             5.38280
 30.7143             5.38426
 30.8036             5.38556
 30.8929             5.38702
 30.9821             5.38832
 31.0714             5.38977
 31.1607             5.39107
 31.2500             5.39253
 31.3393             5.39383
 31.4286             5.39528
 31.5179             5.39659
 31.6071             5.39804
 31.6964             5.39934
 31.7857             5.40079
 31.8750             5.40210
 31.9643             5.40355
 32.0536             5.40486
 32.1429             5.40630
 32.2321             5.40762
 32.3214             5.40906
 32.4107             5.41037
 32.5000             5.41182
 32.5893             5.41313
 32.6786             5.41457
 32.7679             5.41589
 32.8571             5.41733
 32.9464             5.41865
 33.0357             5.42008
 33.1250             5.42141
 33.2143             5.42284
 33.3036             5.42417
 33.3929             5.42560
 33.4821             5.42692
 33.5714             5.42835
 33.6607             5.42968
 33.7500             5.43111
 33.8393             5.43244
 33.9286             5.43386
 34.0179             5.43520
 34.1071             5.43662
 34.1964             5.43796
 34.2857             5.43937
 34.3750             5.44072
 34.4643             5.44213
 34.5536             5.44347
 34.6429             5.44488
 34.7321             5.44623
 34.8214             5.44764
 34.9107             5.44899
