#Distance(A) Planar-Average-Potential(eV)/Densitiy(e/A)
  0.0000             5.42591
  0.0891             5.42758
  0.1783             5.42942
  0.2674             5.43108
  0.3565             5.43292
  0.4456             5.43459
  0.5348             5.43643
  0.6239             5.43809
  0.7130             5.43993
  0.8022             5.44160
  0.8913             5.44344
  0.9804             5.44511
  1.0695             5.44695
  1.1587             5.44862
  1.2478             5.45046
  1.3369             5.45213
  1.4261             5.45398
  1.5152             5.45565
  1.6043             5.45750
  1.6934             5.45917
  1.7826             5.46102
  1.8717             5.46269
  1.9608             5.46454
  2.0500             5.46622
  2.1391             5.46807
  2.2282             5.46975
  2.3173             5.47160
  2.4065             5.47328
  2.4956             5.47514
  2.5847             5.47682
  2.6739             5.47867
  2.7630             5.48035
  2.8521             5.48221
  2.9412             5.48390
  3.0304             5.48576
  3.1195             5.48744
  3.2086             5.48930
  3.2978             5.49098
  3.3869             5.49285
  3.4760             5.49453
  3.5651             5.49639
  3.6543             5.49808
  3.7434             5.49994
  3.8325             5.50162
  3.9217             5.50349
  4.0108             5.50517
  4.0999             5.50704
  4.1890             5.50872
  4.2782             5.51058
  4.3673             5.51227
  4.4564             5.51413
  4.5456             5.51581
  4.6347             5.51768
  4.7238             5.51936
  4.8129             5.52122
  4.9021             5.52290
  4.9912             5.52476
  5.0803             5.52645
  5.1695             5.52830
  5.2586             5.52998
  5.3477             5.53184
  5.4368             5.53352
  5.5260             5.53538
  5.6151             5.53706
  5.7042             5.53891
  5.7934             5.54059
  5.8825             5.54244
  5.9716             5.54412
  6.0607             5.54597
  6.1499             5.54765
  6.2390             5.54950
  6.3281             5.55117
  6.4173             5.55302
  6.5064             5.55470
  6.5955             5.55654
  6.6846             5.55822
  6.7738             5.56006
  6.8629             5.56173
  6.9520             5.56358
  7.0412             5.56525
  7.1303             5.56710
  7.2194             5.56877
  7.3085             5.57061
  7.3977             5.57228
  7.4868             5.57412
  7.5759             5.57579
  7.6651             5.57763
  7.7542             5.57929
  7.8433             5.58113
  7.9324             5.58279
  8.0216             5.58462
  8.1107             5.58628
  8.1998             5.58811
  8.2890             5.58975
  8.3781             5.59157
  8.4672             5.59320
  8.5563             5.59500
  8.6455             5.59660
  8.7346             5.59837
  8.8237             5.59993
  8.9129             5.60164
  9.0020             5.60312
  9.0911             5.60474
  9.1802             5.60610
  9.2694             5.60756
  9.3585             5.60872
  9.4476             5.60991
  9.5368             5.61070
  9.6259             5.61143
  9.7150             5.61162
  9.8041             5.61156
  9.8933             5.61072
  9.9824             5.60932
 10.0715             5.60672
 10.1607             5.60304
 10.2498             5.59742
 10.3389             5.58981
 10.4280             5.57902
 10.5172             5.56464
 10.6063             5.54493
 10.6954             5.51882
 10.7846             5.48357
 10.8737             5.43690
 10.9628             5.37431
 11.0519             5.29146
 11.1411             5.18325
 11.2302             5.04005
 11.3193             4.82976
 11.4085             4.54355
 11.4976             4.17041
 11.5867             3.66161
 11.6758             2.96655
 11.7650             2.09507
 11.8541             1.10097
 11.9432             0.04308
 12.0324            -1.17987
 12.1215            -2.69474
 12.2106            -4.39458
 12.2997            -6.00549
 12.3889            -7.24853
 12.4780            -7.98637
 12.5671            -8.24713
 12.6563            -8.13828
 12.7454            -7.80730
 12.8345            -7.41273
 12.9236            -7.03231
 13.0128            -6.68380
 13.1019            -6.44432
 13.1910            -6.53691
 13.2802            -7.17143
 13.3693            -8.30963
 13.4584            -9.63230
 13.5475           -10.84231
 13.6367           -11.79473
 13.7258           -12.38537
 13.8149           -12.56046
 13.9041           -12.30381
 13.9932           -11.64170
 14.0823           -10.64430
 14.1714            -9.40172
 14.2606            -8.08068
 14.3497            -7.03862
 14.4388            -6.51332
 14.5280            -6.46494
 14.6171            -6.67077
 14.7062            -6.94575
 14.7953            -7.24594
 14.8845            -7.58371
 14.9736            -7.87067
 15.0627            -7.92858
 15.1519            -7.61025
 15.2410            -6.80797
 15.3301            -5.52623
 15.4192            -3.93594
 15.5084            -2.33235
 15.5975            -0.96843
 15.6866             0.12779
 15.7758             1.11820
 15.8649             2.03058
 15.9540             2.79947
 16.0431             3.39004
 16.1323             3.80154
 16.2214             4.07545
 16.3105             4.25035
 16.3997             4.33133
 16.4888             4.31659
 16.5779             4.22517
 16.6670             4.04847
 16.7562             3.76766
 16.8453             3.36184
 16.9344             2.78979
 17.0236             2.02918
 17.1127             1.05165
 17.2018            -0.47552
 17.2909            -2.68476
 17.3801            -5.22187
 17.4692            -7.83383
 17.5583           -10.49006
 17.6475           -13.17240
 17.7366           -15.87109
 17.8257           -18.53699
 17.9148           -20.97147
 18.0040           -22.84527
 18.0931           -23.82903
 18.1822           -23.77345
 18.2714           -22.79003
 18.3605           -21.20874
 18.4496           -19.35614
 18.5387           -17.30255
 18.6279           -14.83532
 18.7170           -12.06434
 18.8061            -9.22690
 18.8953            -6.53114
 18.9844            -4.18515
 19.0735            -2.36408
 19.1626            -1.14736
 19.2518            -0.42553
 19.3409             0.06846
 19.4300             0.07997
 19.5192            -0.67951
 19.6083            -1.98809
 19.6974            -3.45200
 19.7865            -4.70677
 19.8757            -5.61954
 19.9648            -6.25668
 20.0539            -6.71245
 20.1431            -7.09796
 20.2322            -7.57178
 20.3213            -8.13232
 20.4104            -8.74768
 20.4996            -9.44888
 20.5887           -10.45836
 20.6778           -11.97616
 20.7670           -13.99613
 20.8561           -16.08048
 20.9452           -17.92206
 21.0343           -19.46225
 21.1235           -20.60863
 21.2126           -21.31887
 21.3017           -21.56708
 21.3909           -21.34980
 21.4800           -20.66951
 21.5691           -19.55106
 21.6582           -18.03399
 21.7474           -16.21003
 21.8365           -14.13663
 21.9256           -12.09371
 22.0148           -10.53576
 22.1039            -9.49666
 22.1930            -8.78286
 22.2821            -8.16552
 22.3713            -7.60056
 22.4604            -7.11994
 22.5495            -6.73150
 22.6387            -6.28538
 22.7278            -5.66193
 22.8169            -4.77131
 22.9060            -3.53683
 22.9952            -2.07573
 23.0843            -0.73946
 23.1734             0.07199
 23.2626             0.11517
 23.3517            -0.35849
 23.4408            -1.05151
 23.5299            -2.21721
 23.6191            -3.98657
 23.7082            -6.29135
 23.7973            -8.95908
 23.8865           -11.78539
 23.9756           -14.55652
 24.0647           -17.04977
 24.1538           -19.10176
 24.2430           -20.91203
 24.3321           -22.48800
 24.4212           -23.52816
 24.5104           -23.69439
 24.5995           -22.83061
 24.6886           -21.05202
 24.7777           -18.66846
 24.8669           -16.02530
 24.9560           -13.34394
 25.0451           -10.69245
 25.1343            -8.07007
 25.2234            -5.48119
 25.3125            -2.92692
 25.4016            -0.63403
 25.4908             1.01072
 25.5799             2.05258
 25.6690             2.84703
 25.7582             3.46765
 25.8473             3.92227
 25.9364             4.26382
 26.0255             4.51516
 26.1147             4.70436
 26.2038             4.84392
 26.2929             4.94964
 26.3821             5.02776
 26.4712             5.08748
 26.5603             5.13167
 26.6494             5.16593
 26.7386             5.19134
 26.8277             5.21143
 26.9168             5.22637
 27.0060             5.23851
 27.0951             5.24760
 27.1842             5.25528
 27.2733             5.26109
 27.3625             5.26624
 27.4516             5.27023
 27.5407             5.27394
 27.6299             5.27691
 27.7190             5.27980
 27.8081             5.28220
 27.8972             5.28464
 27.9864             5.28672
 28.0755             5.28888
 28.1646             5.29080
 28.2538             5.29281
 28.3429             5.29463
 28.4320             5.29654
 28.5211             5.29832
 28.6103             5.30018
 28.6994             5.30194
 28.7885             5.30376
 28.8777             5.30552
 28.9668             5.30732
 29.0559             5.30908
 29.1450             5.31086
 29.2342             5.31262
 29.3233             5.31440
 29.4124             5.31617
 29.5016             5.31793
 29.5907             5.31971
 29.6798             5.32147
 29.7689             5.32326
 29.8581             5.32501
 29.9472             5.32681
 30.0363             5.32856
 30.1255             5.33036
 30.2146             5.33211
 30.3037             5.33392
 30.3928             5.33566
 30.4820             5.33748
 30.5711             5.33922
 30.6602             5.34104
 30.7494             5.34278
 30.8385             5.34460
 30.9276             5.34634
 31.0167             5.34817
 31.1059             5.34990
 31.1950             5.35173
 31.2841             5.35346
 31.3733             5.35530
 31.4624             5.35702
 31.5515             5.35886
 31.6406             5.36058
 31.7298             5.36242
 31.8189             5.36414
 31.9080             5.36598
 31.9972             5.36770
 32.0863             5.36954
 32.1754             5.37125
 32.2645             5.37309
 32.3537             5.37480
 32.4428             5.37664
 32.5319             5.37835
 32.6211             5.38018
 32.7102             5.38188
 32.7993             5.38372
 32.8884             5.38542
 32.9776             5.38726
 33.0667             5.38895
 33.1558             5.39079
 33.2450             5.39248
 33.3341             5.39432
 33.4232             5.39600
 33.5123             5.39784
 33.6015             5.39953
 33.6906             5.40136
 33.7797             5.40304
 33.8689             5.40488
 33.9580             5.40655
 34.0471             5.40839
 34.1362             5.41006
 34.2254             5.41190
 34.3145             5.41357
 34.4036             5.41540
 34.4928             5.41707
 34.5819             5.41891
 34.6710             5.42058
 34.7601             5.42241
 34.8493             5.42408
