#Distance(A) Planar-Average-Potential(eV)/Densitiy(e/A)
  0.0000             5.42107
  0.0889             5.42182
  0.1778             5.42266
  0.2667             5.42341
  0.3557             5.42426
  0.4446             5.42500
  0.5335             5.42586
  0.6224             5.42660
  0.7113             5.42746
  0.8002             5.42819
  0.8892             5.42906
  0.9781             5.42978
  1.0670             5.43066
  1.1559             5.43138
  1.2448             5.43226
  1.3337             5.43297
  1.4226             5.43386
  1.5116             5.43456
  1.6005             5.43546
  1.6894             5.43616
  1.7783             5.43706
  1.8672             5.43775
  1.9561             5.43866
  2.0450             5.43934
  2.1340             5.44026
  2.2229             5.44094
  2.3118             5.44185
  2.4007             5.44253
  2.4896             5.44345
  2.5785             5.44412
  2.6675             5.44505
  2.7564             5.44572
  2.8453             5.44665
  2.9342             5.44731
  3.0231             5.44825
  3.1120             5.44890
  3.2009             5.44985
  3.2899             5.45049
  3.3788             5.45145
  3.4677             5.45209
  3.5566             5.45305
  3.6455             5.45368
  3.7344             5.45465
  3.8234             5.45527
  3.9123             5.45625
  4.0012             5.45686
  4.0901             5.45784
  4.1790             5.45846
  4.2679             5.45944
  4.3568             5.46005
  4.4458             5.46104
  4.5347             5.46164
  4.6236             5.46264
  4.7125             5.46323
  4.8014             5.46424
  4.8903             5.46483
  4.9792             5.46584
  5.0682             5.46642
  5.1571             5.46744
  5.2460             5.46801
  5.3349             5.46904
  5.4238             5.46960
  5.5127             5.47064
  5.6017             5.47119
  5.6906             5.47224
  5.7795             5.47278
  5.8684             5.47384
  5.9573             5.47437
  6.0462             5.47544
  6.1351             5.47596
  6.2241             5.47704
  6.3130             5.47756
  6.4019             5.47864
  6.4908             5.47914
  6.5797             5.48024
  6.6686             5.48073
  6.7575             5.48184
  6.8465             5.48232
  6.9354             5.48344
  7.0243             5.48391
  7.1132             5.48504
  7.2021             5.48549
  7.2910             5.48664
  7.3800             5.48708
  7.4689             5.48824
  7.5578             5.48866
  7.6467             5.48984
  7.7356             5.49024
  7.8245             5.49143
  7.9134             5.49181
  8.0024             5.49302
  8.0913             5.49337
  8.1802             5.49458
  8.2691             5.49490
  8.3580             5.49613
  8.4469             5.49640
  8.5359             5.49762
  8.6248             5.49782
  8.7137             5.49902
  8.8026             5.49913
  8.8915             5.50026
  8.9804             5.50021
  9.0693             5.50123
  9.1583             5.50093
  9.2472             5.50170
  9.3361             5.50096
  9.4250             5.50128
  9.5139             5.49982
  9.6028             5.49929
  9.6917             5.49656
  9.7807             5.49450
  9.8696             5.48957
  9.9585             5.48475
 10.0474             5.47591
 10.1363             5.46615
 10.2252             5.45038
 10.3142             5.43168
 10.4031             5.40349
 10.4920             5.36862
 10.5809             5.31798
 10.6698             5.25352
 10.7587             5.16282
 10.8476             5.05146
 10.9366             4.88070
 11.0255             4.63345
 11.1144             4.31299
 11.2033             3.88224
 11.2922             3.26447
 11.3811             2.46040
 11.4701             1.50220
 11.5590             0.49213
 11.6479            -0.60052
 11.7368            -2.04874
 11.8257            -3.80093
 11.9146            -5.54911
 12.0035            -6.94854
 12.0925            -7.80837
 12.1814            -8.14166
 12.2703            -8.07225
 12.3592            -7.75008
 12.4481            -7.35398
 12.5370            -6.99479
 12.6259            -6.64616
 12.7149            -6.30885
 12.8038            -6.21846
 12.8927            -6.70081
 12.9816            -7.82740
 13.0705            -9.26763
 13.1594           -10.57349
 13.2484           -11.62286
 13.3373           -12.31884
 13.4262           -12.59029
 13.5151           -12.41247
 13.6040           -11.80243
 13.6929           -10.81403
 13.7818            -9.55378
 13.8708            -8.10432
 13.9597            -6.85113
 14.0486            -6.19619
 14.1375            -6.15504
 14.2264            -6.45143
 14.3153            -6.78021
 14.4043            -7.09513
 14.4932            -7.45126
 14.5821            -7.79485
 14.6710            -7.94528
 14.7599            -7.75180
 14.8488            -7.07220
 14.9377            -5.85636
 15.0267            -4.23418
 15.1156            -2.52825
 15.2045            -1.05983
 15.2934             0.03736
 15.3823             1.00903
 15.4712             1.97495
 15.5601             2.82248
 15.6491             3.51259
 15.7380             4.00435
 15.8269             4.35068
 15.9158             4.60951
 16.0047             4.79583
 16.0936             4.89958
 16.1826             4.96264
 16.2715             4.99061
 16.3604             4.98371
 16.4493             4.94119
 16.5382             4.85926
 16.6271             4.73181
 16.7160             4.54580
 16.8050             4.28756
 16.8939             3.92941
 16.9828             3.44639
 17.0717             2.78341
 17.1606             1.94973
 17.2495             0.79444
 17.3384            -1.03146
 17.4274            -3.43356
 17.5163            -6.01367
 17.6052            -8.61390
 17.6941           -11.24912
 17.7830           -13.91335
 17.8719           -16.60652
 17.9609           -19.22727
 18.0498           -21.52316
 18.1387           -23.13773
 18.2276           -23.79750
 18.3165           -23.43938
 18.4054           -22.27650
 18.4943           -20.65156
 18.5833           -18.82685
 18.6722           -16.70642
 18.7611           -14.14169
 18.8500           -11.34297
 18.9389            -8.51862
 19.0278            -5.88690
 19.1168            -3.64614
 19.2057            -1.95817
 19.2946            -0.86736
 19.3835            -0.19907
 19.4724             0.24800
 19.5613             0.10968
 19.6502            -0.78695
 19.7392            -2.16626
 19.8281            -3.61959
 19.9170            -4.82233
 20.0059            -5.68465
 20.0948            -6.29473
 20.1837            -6.73472
 20.2726            -7.15545
 20.3616            -7.68795
 20.4505            -8.31140
 20.5394            -8.98505
 20.6283            -9.77388
 20.7172           -10.90937
 20.8061           -12.57311
 20.8951           -14.68442
 20.9840           -16.77220
 21.0729           -18.59140
 21.1618           -20.08386
 21.2507           -21.16011
 21.3396           -21.78590
 21.4285           -21.93887
 21.5175           -21.61872
 21.6064           -20.83063
 21.6953           -19.60195
 21.7842           -17.98259
 21.8731           -16.06373
 21.9620           -13.91638
 22.0510           -11.92110
 22.1399           -10.45703
 22.2288            -9.46927
 22.3177            -8.74363
 22.4066            -8.08330
 22.4955            -7.48729
 22.5844            -6.99509
 22.6734            -6.59139
 22.7623            -6.09984
 22.8512            -5.41318
 22.9401            -4.43348
 23.0290            -3.11983
 23.1179            -1.64396
 23.2068            -0.39229
 23.2958             0.25575
 23.3847             0.13598
 23.4736            -0.40275
 23.5625            -1.17986
 23.6514            -2.47655
 23.7403            -4.36926
 23.8293            -6.76835
 23.9182            -9.48931
 24.0071           -12.32503
 24.0960           -15.06415
 24.1849           -17.48109
 24.2738           -19.45350
 24.3627           -21.20333
 24.4517           -22.69126
 24.5406           -23.60828
 24.6295           -23.62583
 24.7184           -22.62302
 24.8073           -20.73836
 24.8962           -18.29712
 24.9852           -15.63373
 25.0741           -12.95462
 25.1630           -10.31165
 25.2519            -7.70239
 25.3408            -5.11781
 25.4297            -2.56463
 25.5186            -0.30957
 25.6076             1.27287
 25.6965             2.28004
 25.7854             3.05581
 25.8743             3.65605
 25.9632             4.09355
 26.0521             4.42115
 26.1410             4.66018
 26.2300             4.83960
 26.3189             4.97016
 26.4078             5.06892
 26.4967             5.14037
 26.5856             5.19513
 26.6745             5.23435
 26.7635             5.26505
 26.8524             5.28670
 26.9413             5.30423
 27.0302             5.31624
 27.1191             5.32648
 27.2080             5.33323
 27.2969             5.33946
 27.3859             5.34332
 27.4748             5.34731
 27.5637             5.34960
 27.6526             5.35236
 27.7415             5.35379
 27.8304             5.35583
 27.9193             5.35682
 28.0083             5.35847
 28.0972             5.35921
 28.1861             5.36062
 28.2750             5.36125
 28.3639             5.36253
 28.4528             5.36309
 28.5418             5.36429
 28.6307             5.36483
 28.7196             5.36598
 28.8085             5.36651
 28.8974             5.36761
 28.9863             5.36816
 29.0752             5.36923
 29.1642             5.36979
 29.2531             5.37083
 29.3420             5.37140
 29.4309             5.37244
 29.5198             5.37301
 29.6087             5.37403
 29.6977             5.37462
 29.7866             5.37562
 29.8755             5.37623
 29.9644             5.37721
 30.0533             5.37784
 30.1422             5.37881
 30.2311             5.37944
 30.3201             5.38040
 30.4090             5.38104
 30.4979             5.38199
 30.5868             5.38265
 30.6757             5.38358
 30.7646             5.38425
 30.8535             5.38518
 30.9425             5.38585
 31.0314             5.38676
 31.1203             5.38745
 31.2092             5.38836
 31.2981             5.38906
 31.3870             5.38995
 31.4760             5.39066
 31.5649             5.39155
 31.6538             5.39226
 31.7427             5.39314
 31.8316             5.39386
 31.9205             5.39473
 32.0094             5.39546
 32.0984             5.39632
 32.1873             5.39706
 32.2762             5.39792
 32.3651             5.39866
 32.4540             5.39951
 32.5429             5.40027
 32.6319             5.40110
 32.7208             5.40187
 32.8097             5.40269
 32.8986             5.40347
 32.9875             5.40429
 33.0764             5.40507
 33.1653             5.40588
 33.2543             5.40667
 33.3432             5.40748
 33.4321             5.40827
 33.5210             5.40907
 33.6099             5.40987
 33.6988             5.41066
 33.7877             5.41147
 33.8767             5.41225
 33.9656             5.41307
 34.0545             5.41385
 34.1434             5.41467
 34.2323             5.41544
 34.3212             5.41627
 34.4102             5.41704
 34.4991             5.41787
 34.5880             5.41863
 34.6769             5.41947
 34.7658             5.42022
